Sensor Position (Degrees)	Light Intensity (Volts)
180.00000	3.72216
180.00000	3.71620
180.00000	3.72925
180.00000	3.72715
180.00000	3.72570
180.00000	3.72587
180.00000	3.71942
180.00000	3.72184
180.00000	3.72812
180.00000	3.72844
180.00000	3.72216
180.00000	3.72925
179.98333	3.73312
179.98333	3.74729
179.98333	3.73618
179.98333	3.73779
179.98333	3.74568
179.96667	3.73827
179.96667	3.75164
179.96667	3.75003
179.96667	3.75696
179.95000	3.75487
179.95000	3.75906
179.95000	3.76115
179.93333	3.75648
179.93333	3.75358
179.93333	3.76002
179.91667	3.76776
179.91667	3.78161
179.91667	3.77984
179.90000	3.78548
179.90000	3.78645
179.90000	3.78661
179.88333	3.79466
179.88333	3.79321
179.88333	3.80948
179.88333	3.80078
179.86667	3.81174
179.86667	3.81802
179.85000	3.81625
179.83333	3.83301
179.83333	3.84638
179.78333	3.88054
178.88333	3.80852
177.70000	0.03283
177.58333	0.01640
177.58333	0.02043
177.58333	0.01576
177.58333	0.01543
177.60000	0.01817
177.60000	0.01850
177.60000	0.01914
177.60000	0.01205
177.60000	0.01253
177.60000	0.01688
177.60000	0.01108
177.60000	0.02220
177.60000	0.03235
177.60000	0.05700
177.60000	0.11403
177.60000	0.16688
177.58333	0.28304
177.58333	0.36650
177.58333	0.46413
177.58333	0.80955
177.58333	0.78200
177.58333	0.80037
177.58333	0.77749
177.58333	0.76074
177.58333	0.73593
177.58333	0.70129
177.58333	0.58158
177.58333	0.52600
177.58333	0.55419
177.58333	0.54920
177.58333	0.56611
177.58333	0.54694
177.58333	0.59318
177.58333	0.75574
177.58333	0.77363
177.58333	0.80601
177.58333	0.82534
177.58333	0.82985
177.58333	0.87142
177.58333	0.91573
177.58333	0.89897
177.58333	0.87867
177.58333	0.68034
177.60000	0.71047
177.61667	0.74124
177.63333	0.92894
177.65000	0.94279
177.65000	0.99516
177.65000	1.03769
177.65000	1.02061
177.65000	1.03737
177.65000	1.06637
177.63333	1.07330
177.63333	1.05686
177.61667	1.08232
177.60000	1.05171
177.56667	1.04011
177.41667	0.99113
176.81667	0.92797
176.70000	0.84258
176.71667	0.77685
176.71667	0.71901
176.71667	0.74865
176.73333	0.76187
176.73333	0.72852
176.73333	0.83743
176.73333	1.32189
176.73333	1.81135
176.73333	1.85840
176.73333	1.86097
176.73333	1.85260
176.73333	1.86436
176.73333	1.82746
176.73333	1.83423
176.73333	1.89513
176.73333	1.90254
176.73333	1.89851
176.73333	1.91027
176.73333	1.91640
176.73333	1.89900
176.73333	1.90480
176.73333	1.90061
176.73333	1.88997
176.73333	1.85517
176.73333	1.82472
176.73333	1.85147
176.75000	1.86097
176.75000	1.94282
176.75000	1.97343
176.75000	2.04464
176.75000	2.16387
176.75000	2.18207
176.75000	2.21961
176.73333	2.29259
176.73333	2.25554
176.73333	2.32143
176.73333	2.33303
176.71667	2.32788
176.71667	2.29437
176.71667	2.29839
176.70000	2.31306
176.70000	2.33336
176.68333	2.32772
176.61667	2.36348
175.86667	2.48690
175.23333	1.88288
175.18333	1.49025
175.18333	1.40132
175.18333	1.37844
175.20000	1.31835
175.20000	1.25503
175.20000	1.34026
175.20000	1.54664
175.20000	1.76866
175.20000	2.08331
175.20000	2.27616
175.20000	2.54490
175.20000	2.57358
175.20000	2.65607
175.20000	2.65913
175.20000	2.65671
175.20000	2.64801
175.20000	2.63270
175.20000	2.63609
175.20000	2.63432
175.20000	2.66396
175.20000	2.65220
175.20000	2.63093
175.20000	2.63786
175.20000	2.64124
175.20000	2.64285
175.20000	2.64769
175.20000	2.64495
175.20000	2.65719
175.20000	2.66138
175.20000	2.65913
175.20000	2.65913
175.20000	2.65526
175.20000	2.65687
175.18333	2.65284
175.18333	2.65204
175.18333	2.65397
175.18333	2.64930
175.16667	2.64962
175.16667	2.63818
175.16667	2.63577
175.16667	2.63174
175.15000	2.63850
175.13333	2.62916
175.08333	2.64704
174.45000	2.61611
173.61667	0.78474
173.46667	0.12435
173.46667	0.11516
173.48333	0.10243
173.48333	0.09083
173.46667	0.08761
173.46667	0.08423
173.46667	0.09196
173.46667	0.08487
173.48333	0.46316
173.48333	2.36510
173.48333	2.44275
173.48333	2.46934
173.48333	2.48738
173.48333	2.48738
173.48333	2.25506
173.48333	1.90335
173.48333	1.79218
173.48333	1.65845
173.48333	1.66877
173.48333	1.67569
173.48333	1.66522
173.48333	1.65733
173.48333	1.66184
173.48333	1.66764
173.48333	1.67988
173.48333	1.67924
173.48333	1.67730
173.48333	1.69406
173.48333	1.64524
173.48333	1.64814
173.48333	1.65974
173.48333	1.76511
173.48333	1.75206
173.48333	1.75351
173.48333	1.69567
173.48333	1.69036
173.48333	1.69616
173.48333	1.77413
173.48333	1.87161
173.48333	1.86871
173.48333	1.86871
173.48333	1.86242
173.48333	1.86291
173.48333	1.88707
173.48333	1.96489
173.48333	1.97359
173.48333	1.96666
173.48333	1.95990
173.48333	1.95249
173.48333	1.93219
173.48333	1.92429
173.46667	1.90770
173.46667	1.89255
173.46667	1.88659
173.46667	1.88047
173.45000	1.88965
173.45000	1.88868
173.45000	1.89175
173.45000	1.88804
173.43333	1.86822
173.43333	1.85952
173.41667	1.85115
172.90000	2.06333
171.65000	2.11891
170.98333	0.27772
171.00000	0.14932
171.00000	0.12692
171.00000	0.12112
171.00000	0.11226
171.00000	0.12499
171.00000	0.11790
171.01667	0.12032
171.01667	0.18219
171.01667	0.83855
171.00000	1.95764
171.00000	2.02740
171.00000	2.07139
171.00000	2.07316
171.00000	2.07558
171.00000	2.09024
171.00000	2.10635
171.00000	2.11295
171.00000	2.10844
171.00000	2.10506
171.00000	2.08895
171.00000	2.03417
171.00000	2.00904
171.00000	1.98181
171.00000	1.95104
171.00000	1.97343
171.00000	2.03787
171.01667	2.09104
171.01667	2.08685
171.01667	2.09281
171.01667	2.08863
171.01667	2.09056
171.01667	2.08750
171.01667	2.09281
171.01667	2.09185
171.01667	2.08846
171.00000	2.08685
171.00000	2.07638
171.00000	2.07783
171.00000	2.06913
171.00000	2.06833
170.98333	2.06414
170.98333	2.06236
170.98333	2.04641
170.98333	2.04706
170.96667	2.03981
170.96667	2.03820
170.96667	2.03771
170.95000	2.03207
170.93333	2.03610
170.60000	2.05447
169.73333	1.63090
169.35000	0.21972
169.35000	0.14142
169.35000	0.15528
169.35000	0.14497
169.33333	0.11710
169.33333	0.11903
169.33333	0.12515
169.35000	0.12515
169.35000	0.16994
169.35000	0.23358
169.35000	0.55725
169.35000	0.94924
169.35000	1.44047
169.35000	1.75851
169.35000	1.83407
169.35000	1.86935
169.35000	1.79927
169.35000	1.76092
169.35000	1.74852
169.35000	1.71001
169.35000	1.70292
169.35000	1.69019
169.35000	1.65185
169.35000	1.64750
169.35000	1.65024
169.35000	1.65926
169.35000	1.67650
169.36667	1.73047
169.36667	1.79186
169.36667	1.79427
169.36667	1.80104
169.36667	1.79878
169.36667	1.78734
169.36667	1.79298
169.36667	1.79282
169.36667	1.78332
169.36667	1.77945
169.35000	1.76737
169.35000	1.74481
169.35000	1.72161
169.33333	1.70292
169.33333	1.69229
169.33333	1.67376
169.33333	1.67295
169.31667	1.67537
169.31667	1.67940
169.31667	1.65410
169.31667	1.52006
169.31667	1.49251
169.31667	1.45255
169.31667	1.48993
169.31667	1.51523
169.30000	1.54600
169.30000	1.54471
169.30000	1.54519
169.30000	1.54648
169.30000	1.54229
169.28333	1.54487
169.28333	1.53279
169.26667	1.53988
169.26667	1.53955
169.20000	1.54970
168.40000	1.72886
168.18333	1.56936
168.18333	1.54874
168.18333	1.54970
168.18333	1.54487
168.18333	1.55035
168.16667	1.54503
168.16667	1.54213
168.16667	1.54036
168.16667	1.53746
168.16667	1.54261
168.16667	1.54390
168.16667	1.53778
168.16667	1.53665
168.16667	1.54116
168.16667	1.58483
168.16667	1.66264
168.16667	1.68149
168.16667	1.65523
168.16667	1.61624
168.16667	1.61576
168.16667	1.61640
168.16667	1.61995
168.16667	1.61818
168.16667	1.61254
168.16667	1.58354
168.16667	1.52940
168.16667	1.48349
168.16667	1.48236
168.16667	1.49460
168.16667	1.53263
168.16667	1.54664
168.16667	1.55341
168.16667	1.55003
168.16667	1.53988
168.16667	1.53101
168.16667	1.53005
168.16667	1.52022
168.16667	1.49863
168.15000	1.49670
168.15000	1.50443
168.13333	1.49138
168.08333	1.50717
166.98333	1.48494
165.60000	0.01108
165.23333	0.00528
165.23333	0.00367
165.25000	0.00077
165.25000	0.00335
165.25000	-0.00116
165.25000	0.00238
165.25000	0.00400
165.25000	0.00287
165.25000	0.00319
165.25000	0.02156
165.25000	0.15705
165.25000	0.44206
165.25000	0.42772
165.25000	0.57353
165.25000	1.27614
165.25000	1.34944
165.25000	1.35105
165.25000	1.35911
165.25000	1.35975
165.25000	1.35717
165.25000	1.35572
165.25000	1.26856
165.25000	1.22748
165.25000	1.12743
165.25000	1.08957
165.25000	1.14805
165.25000	1.16900
165.26667	1.16368
165.26667	1.16352
165.26667	1.16497
165.26667	1.16078
165.26667	1.16384
165.26667	1.16207
165.25000	1.15192
165.25000	1.14177
165.25000	1.12082
165.23333	1.11825
165.23333	1.09682
165.21667	1.10375
165.18333	1.09956
164.68333	1.23199
163.71667	1.14354
163.25000	0.40871
163.25000	0.24727
163.25000	0.22424
163.25000	0.22101
163.26667	0.21086
163.26667	0.19008
163.26667	0.21119
163.26667	0.29496
163.26667	0.52439
163.26667	1.09102
163.26667	1.14708
163.26667	1.15772
163.26667	1.10439
163.26667	1.10536
163.26667	1.10326
163.26667	1.09392
163.26667	1.08892
163.26667	1.09585
163.26667	1.11148
163.26667	1.11277
163.26667	1.11357
163.26667	1.11615
163.26667	1.11132
163.28333	1.11228
163.28333	1.11293
163.28333	1.11776
163.28333	1.11518
163.26667	1.10632
163.26667	1.10004
163.26667	1.08151
163.25000	1.07587
163.25000	1.07281
163.25000	1.06991
163.25000	1.05960
163.23333	1.05847
163.23333	1.05960
163.23333	1.06572
163.23333	1.06588
163.23333	1.07265
163.21667	1.06991
163.20000	1.07458
163.18333	1.06540
163.15000	1.08699
162.26667	1.05718
161.08333	0.00947
160.95000	0.00158
160.95000	0.00142
160.95000	0.00238
160.95000	-0.00003
160.95000	0.00222
160.96667	0.00303
160.96667	0.00142
160.96667	0.51826
160.96667	0.93522
160.96667	0.85128
160.96667	0.80730
160.96667	0.80778
160.96667	0.80891
160.96667	0.81149
160.96667	0.80037
160.96667	0.80714
160.96667	0.80343
160.96667	0.83743
160.96667	0.84355
160.96667	0.84564
160.98333	0.85257
160.98333	0.85338
160.98333	0.85128
160.98333	0.85628
160.98333	0.85724
160.98333	0.85918
160.98333	0.84210
160.96667	0.84371
160.96667	0.82599
160.95000	0.80907
160.95000	0.80037
160.95000	0.79940
160.93333	0.80134
160.91667	0.80359
160.91667	0.80456
160.88333	0.80778
160.83333	0.81842
160.08333	0.91573
158.98333	0.32396
158.46667	-0.00116
158.46667	0.00351
158.48333	0.00545
158.48333	0.00093
158.48333	0.00319
158.48333	0.00093
158.48333	0.00416
158.48333	0.00432
158.48333	0.00367
158.48333	0.00561
158.48333	0.25275
158.48333	0.64554
158.48333	0.70709
158.48333	0.76058
158.48333	0.80375
158.48333	0.79908
158.48333	0.79312
158.48333	0.78942
158.48333	0.79119
158.48333	0.78555
158.48333	0.78378
158.48333	0.79280
158.50000	0.79312
158.50000	0.79812
158.50000	0.79683
158.50000	0.79683
158.50000	0.79779
158.50000	0.79634
158.50000	0.80263
158.50000	0.80343
158.50000	0.79167
158.48333	0.79312
158.48333	0.78587
158.46667	0.78329
158.45000	0.77379
158.43333	0.77524
158.43333	0.78007
158.33333	0.78055
157.45000	0.67986
155.91667	-0.00003
155.21667	0.00206
155.21667	0.00110
155.21667	-0.00084
155.21667	0.00126
155.21667	-0.00390
155.23333	0.00158
155.23333	0.00013
155.23333	-0.00180
155.23333	-0.00068
155.23333	0.00238
155.23333	-0.00261
155.23333	-0.00084
155.23333	0.00351
155.23333	0.60365
155.23333	0.59818
155.23333	0.58883
155.23333	0.58593
155.23333	0.58883
155.23333	0.59028
155.23333	0.58948
155.23333	0.59205
155.23333	0.59495
155.23333	0.61558
155.25000	0.61686
155.25000	0.61541
155.25000	0.61686
155.25000	0.61799
155.25000	0.61332
155.25000	0.62089
155.25000	0.61719
155.25000	0.61896
155.25000	0.61574
155.25000	0.61864
155.23333	0.61751
155.23333	0.61831
155.23333	0.61171
155.23333	0.60978
155.21667	0.61026
155.21667	0.61123
155.21667	0.61558
155.21667	0.61445
155.20000	0.60430
155.20000	0.60994
155.20000	0.60752
155.20000	0.60559
155.20000	0.60655
155.20000	0.61106
155.18333	0.60236
155.18333	0.61139
155.18333	0.61074
155.18333	0.60865
155.18333	0.60671
155.18333	0.60607
155.18333	0.60881
155.16667	0.59801
155.16667	0.60945
155.15000	0.59995
155.13333	0.60124
154.81667	0.59350
153.55000	0.13321
152.96667	0.00351
152.98333	0.00238
152.98333	0.00077
152.98333	0.00190
152.98333	-0.00035
152.98333	0.00190
152.98333	0.00158
153.00000	0.00190
153.00000	0.00335
153.00000	0.41918
153.00000	0.51263
153.00000	0.50795
153.00000	0.49571
153.00000	0.48153
153.00000	0.47638
153.00000	0.47299
153.00000	0.48089
153.00000	0.47734
153.00000	0.47509
153.00000	0.48185
153.00000	0.48733
153.00000	0.49216
153.00000	0.49490
153.00000	0.49490
153.00000	0.48959
153.00000	0.49168
153.00000	0.49184
153.00000	0.48749
153.01667	0.49120
153.00000	0.48765
153.00000	0.48330
153.00000	0.48185
152.98333	0.47396
152.98333	0.46606
152.98333	0.45801
152.98333	0.46155
152.96667	0.45801
152.96667	0.45334
152.95000	0.46155
152.93333	0.45382
152.81667	0.47122
151.83333	0.44786
150.75000	0.00093
150.63333	0.00158
150.65000	-0.00052
150.65000	0.00303
150.65000	0.00238
150.65000	-0.00197
150.65000	0.00206
150.65000	0.00335
150.66667	-0.00245
150.66667	0.00303
150.66667	0.00383
150.66667	0.07891
150.66667	0.41886
150.66667	0.42224
150.66667	0.42627
150.66667	0.41821
150.66667	0.42192
150.66667	0.42128
150.66667	0.41209
150.66667	0.29480
150.66667	0.22794
150.66667	0.20007
150.66667	0.20555
150.66667	0.20829
150.66667	0.20877
150.66667	0.21747
150.66667	0.22617
150.66667	0.23551
150.66667	0.29158
150.66667	0.31091
150.66667	0.30850
150.66667	0.31591
150.66667	0.31285
150.66667	0.31301
150.66667	0.30962
150.66667	0.31768
150.66667	0.31559
150.66667	0.31720
150.66667	0.31607
150.66667	0.32122
150.66667	0.32203
150.66667	0.31542
150.66667	0.32348
150.66667	0.32396
150.66667	0.34926
150.66667	0.37922
150.66667	0.38035
150.66667	0.37987
150.66667	0.38245
150.66667	0.37745
150.66667	0.37842
150.66667	0.37246
150.66667	0.37906
150.66667	0.37310
150.66667	0.37278
150.66667	0.37826
150.66667	0.37359
150.66667	0.37197
150.66667	0.37246
150.65000	0.37165
150.65000	0.35651
150.65000	0.35651
150.63333	0.35892
150.63333	0.35860
150.63333	0.36118
150.63333	0.35892
150.63333	0.36037
150.63333	0.35522
150.63333	0.35925
150.63333	0.36327
150.61667	0.35844
150.61667	0.36327
150.60000	0.35554
150.60000	0.35747
150.56667	0.36037
149.71667	0.39437
148.15000	0.04959
147.60000	0.00287
147.60000	0.00335
147.60000	-0.00035
147.60000	-0.00035
147.60000	0.00255
147.60000	0.00142
147.60000	-0.00068
147.61667	0.00238
147.61667	0.00158
147.61667	0.00110
147.61667	0.00206
147.61667	0.00593
147.61667	0.00432
147.61667	0.00190
147.61667	0.30624
147.61667	0.32090
147.61667	0.32122
147.61667	0.32171
147.61667	0.32026
147.61667	0.31929
147.61667	0.31977
147.61667	0.31961
147.61667	0.31977
147.61667	0.31881
147.61667	0.30511
147.61667	0.27209
147.61667	0.25098
147.61667	0.25034
147.61667	0.24744
147.61667	0.25968
147.61667	0.25436
147.61667	0.26049
147.61667	0.26032
147.61667	0.25420
147.61667	0.25130
147.61667	0.24969
147.61667	0.25759
147.61667	0.24953
147.60000	0.25098
147.60000	0.25146
147.60000	0.24695
147.60000	0.24389
147.58333	0.24502
147.56667	0.24953
147.55000	0.24872
147.26667	0.27563
146.23333	0.28207
145.56667	0.09341
145.55000	0.04991
145.55000	0.05072
145.55000	0.05281
145.55000	0.04331
145.55000	0.04073
145.55000	0.04750
145.56667	0.05072
145.56667	0.14819
145.56667	0.26065
145.56667	0.26258
145.56667	0.26564
145.56667	0.26532
145.56667	0.25726
145.56667	0.26419
145.56667	0.26419
145.56667	0.26032
145.56667	0.20394
145.56667	0.05829
145.56667	0.05458
145.56667	0.05748
145.56667	0.05507
145.56667	0.06312
145.56667	0.06457
145.56667	0.07440
145.56667	0.09422
145.56667	0.10082
145.56667	0.10920
145.56667	0.12676
145.56667	0.19701
145.56667	0.25469
145.56667	0.26274
145.56667	0.26306
145.56667	0.25662
145.56667	0.26000
145.56667	0.26371
145.56667	0.26435
145.56667	0.26290
145.56667	0.25904
145.56667	0.26532
145.56667	0.26210
145.58333	0.26049
145.58333	0.25614
145.58333	0.26097
145.58333	0.25710
145.58333	0.25565
145.58333	0.26435
145.58333	0.25678
145.56667	0.26113
145.56667	0.26129
145.56667	0.26226
145.56667	0.25807
145.56667	0.25839
145.55000	0.25839
145.55000	0.24937
145.55000	0.25614
145.55000	0.25726
145.53333	0.25968
145.53333	0.25920
145.51667	0.25452
145.51667	0.25614
145.51667	0.25791
145.50000	0.25791
145.46667	0.25887
144.46667	0.24019
142.81667	0.00367
142.33333	0.00142
142.35000	0.00077
142.35000	0.00255
142.35000	0.00319
142.36667	0.00190
142.36667	-0.00084
142.36667	0.00400
142.36667	0.16044
142.36667	0.17026
142.36667	0.18347
142.36667	0.18621
142.36667	0.19217
142.36667	0.17929
142.36667	0.17558
142.36667	0.17171
142.36667	0.16833
142.36667	0.17542
142.36667	0.17445
142.36667	0.17187
142.36667	0.17300
142.38333	0.17107
142.38333	0.17735
142.38333	0.17703
142.38333	0.17187
142.38333	0.17252
142.38333	0.17912
142.38333	0.18009
142.38333	0.17510
142.38333	0.17204
142.38333	0.17671
142.36667	0.17977
142.36667	0.17864
142.36667	0.17477
142.36667	0.17719
142.36667	0.17397
142.36667	0.17059
142.36667	0.16720
142.36667	0.16833
142.35000	0.17107
142.35000	0.17365
142.35000	0.16978
142.35000	0.16833
142.33333	0.17187
142.33333	0.16946
142.33333	0.17042
142.31667	0.16994
142.31667	0.17365
142.30000	0.16817
142.30000	0.17590
142.28333	0.17187
142.01667	0.18154
141.20000	0.16736
140.58333	0.04008
140.53333	0.01785
140.55000	0.01141
140.55000	0.00770
140.55000	0.01382
140.55000	0.01350
140.55000	0.01205
140.55000	0.00561
140.55000	0.01076
140.55000	0.00963
140.55000	0.02027
140.55000	0.01656
140.55000	0.03042
140.55000	0.04927
140.55000	0.10920
140.55000	0.11565
140.55000	0.14400
140.55000	0.15496
140.55000	0.16060
140.55000	0.15609
140.55000	0.15754
140.55000	0.15673
140.55000	0.16334
140.55000	0.15754
140.55000	0.12982
140.55000	0.11710
140.55000	0.11951
140.55000	0.11758
140.55000	0.12096
140.55000	0.11951
140.55000	0.11838
140.56667	0.12789
140.56667	0.12354
140.56667	0.12145
140.56667	0.12435
140.56667	0.12870
140.56667	0.12435
140.56667	0.12177
140.56667	0.12402
140.56667	0.12773
140.55000	0.12306
140.55000	0.12096
140.55000	0.12483
140.55000	0.12064
140.53333	0.12451
140.53333	0.12112
140.53333	0.12225
140.53333	0.12225
140.51667	0.12757
140.51667	0.12048
140.50000	0.12209
140.50000	0.12515
140.48333	0.13111
140.43333	0.12596
139.96667	0.14465
139.10000	0.13143
138.91667	0.12096
138.93333	0.12145
138.93333	0.11742
138.93333	0.11693
138.93333	0.11597
138.93333	0.12177
138.93333	0.12032
138.93333	0.11983
138.93333	0.12402
138.93333	0.11903
138.93333	0.12531
138.93333	0.12064
138.93333	0.12064
138.93333	0.12580
138.93333	0.12467
138.93333	0.13514
138.93333	0.13272
138.93333	0.13595
138.93333	0.12048
138.93333	0.09583
138.93333	0.10034
138.93333	0.09470
138.93333	0.09535
138.93333	0.10308
138.93333	0.09857
138.93333	0.09905
138.93333	0.10356
138.93333	0.10356
138.95000	0.09889
138.95000	0.10260
138.95000	0.10405
138.95000	0.10163
138.95000	0.10018
138.95000	0.10388
138.95000	0.10372
138.95000	0.10163
138.95000	0.09583
138.95000	0.09889
138.93333	0.09776
138.93333	0.09792
138.91667	0.09937
138.90000	0.09518
138.76667	0.10163
137.58333	0.11565
136.11667	-0.00213
135.73333	-0.00003
135.73333	0.00222
135.73333	-0.00132
135.75000	0.00174
135.75000	0.00045
135.75000	-0.00100
135.75000	-0.00180
135.75000	0.00222
135.75000	-0.00035
135.75000	0.00238
135.75000	0.04588
135.75000	0.09293
135.75000	0.08616
135.75000	0.08810
135.75000	0.09067
135.75000	0.08810
135.75000	0.09067
135.75000	0.08761
135.75000	0.09051
135.75000	0.08906
135.75000	0.08874
135.75000	0.08487
135.75000	0.08278
135.75000	0.08552
135.75000	0.08632
135.75000	0.09003
135.75000	0.08326
135.75000	0.08439
135.75000	0.08793
135.75000	0.08922
135.75000	0.08262
135.75000	0.08149
135.75000	0.08729
135.73333	0.08503
135.73333	0.08826
135.73333	0.08665
135.71667	0.08600
135.68333	0.08729
135.48333	0.08600
134.20000	0.03203
132.68333	0.00013
132.35000	0.00222
132.36667	0.00190
132.36667	0.00319
132.36667	-0.00132
132.36667	0.00045
132.36667	-0.00052
132.36667	0.00206
132.36667	0.00255
132.36667	0.00142
132.36667	-0.00003
132.36667	0.00174
132.36667	0.00013
132.36667	0.04121
132.36667	0.06248
132.36667	0.05426
132.36667	0.05523
132.36667	0.05877
132.36667	0.05684
132.36667	0.05507
132.36667	0.04991
132.36667	0.04492
132.38333	0.05394
132.38333	0.05813
132.38333	0.05587
132.38333	0.05023
132.38333	0.05201
132.38333	0.05507
132.38333	0.05394
132.38333	0.04959
132.38333	0.05152
132.38333	0.05023
132.38333	0.05587
132.38333	0.05475
132.36667	0.05652
132.36667	0.05507
132.36667	0.05636
132.35000	0.05201
132.35000	0.05168
132.35000	0.05765
132.35000	0.05104
132.33333	0.05394
132.33333	0.04766
132.33333	0.05152
132.31667	0.05491
132.31667	0.05152
132.30000	0.05458
132.28333	0.05394
132.25000	0.05732
131.80000	0.05523
130.61667	0.01141
130.06667	-0.00116
130.08333	0.00110
130.08333	0.00303
130.08333	0.00013
130.08333	0.00142
130.08333	0.00545
130.08333	0.00255
130.08333	0.00206
130.10000	0.00061
130.10000	-0.00116
130.10000	0.00271
130.10000	0.00593
130.10000	0.02542
130.10000	0.03944
130.10000	0.03960
130.10000	0.04186
130.10000	0.04073
130.10000	0.03880
130.10000	0.04202
130.10000	0.03831
130.10000	0.03928
130.10000	0.04073
130.10000	0.03992
130.10000	0.01753
130.10000	0.01495
130.10000	0.01253
130.10000	0.01366
130.10000	0.01785
130.10000	0.01350
130.10000	0.01415
130.10000	0.01656
130.10000	0.01221
130.10000	0.02027
130.10000	0.01431
130.10000	0.02140
130.10000	0.02317
130.10000	0.02349
130.10000	0.02220
130.10000	0.02591
130.10000	0.02720
130.10000	0.03235
130.10000	0.02848
130.10000	0.03493
130.10000	0.02977
130.10000	0.03316
130.10000	0.02913
130.10000	0.03525
130.10000	0.03396
130.10000	0.02687
130.10000	0.03042
130.08333	0.03074
130.08333	0.02768
130.08333	0.03155
130.06667	0.02881
130.06667	0.02591
130.05000	0.02945
129.91667	0.02848
128.70000	0.03573
127.13333	0.00029
126.76667	0.00432
126.78333	-0.00068
126.78333	-0.00180
126.78333	0.00013
126.78333	0.00061
126.78333	-0.00180
126.78333	0.00174
126.78333	0.00255
126.78333	0.00045
126.78333	0.00319
126.78333	0.02107
126.78333	0.02333
126.78333	0.02285
126.78333	0.02123
126.78333	0.02301
126.78333	0.02381
126.80000	0.02494
126.80000	0.02591
126.80000	0.02494
126.80000	0.02252
126.80000	0.02140
126.80000	0.01866
126.80000	0.02188
126.80000	0.02542
126.80000	0.02027
126.80000	0.02929
126.80000	0.02204
126.80000	0.02349
126.80000	0.02236
126.78333	0.02575
126.78333	0.01850
126.78333	0.02349
126.76667	0.02655
126.75000	0.02220
126.66667	0.02462
125.83333	0.01640
124.56667	0.00110
124.25000	0.00480
124.26667	0.00222
124.26667	0.00271
124.26667	0.00351
124.26667	0.00238
124.26667	-0.00052
124.26667	0.00077
124.26667	0.00496
124.28333	0.00996
124.28333	0.01592
124.28333	0.01608
124.28333	0.01286
124.28333	0.01721
124.28333	0.01334
124.28333	0.01092
124.28333	0.01302
124.28333	0.00947
124.28333	0.00980
124.28333	0.01447
124.28333	0.01318
124.28333	0.01350
124.28333	0.01463
124.28333	0.01350
124.28333	0.01479
124.28333	0.01447
124.28333	0.01318
124.28333	0.01431
124.28333	0.01463
124.28333	0.01592
124.28333	0.01302
124.28333	0.01334
124.28333	0.01334
124.28333	0.01415
124.26667	0.00931
124.26667	0.01511
124.26667	0.01318
124.25000	0.01221
124.25000	0.01334
124.23333	0.01431
124.20000	0.01237
123.91667	0.01543
122.65000	0.01221
121.36667	0.00174
121.20000	0.00013
121.20000	0.00271
121.20000	0.00093
121.21667	0.00206
121.21667	0.00271
121.21667	0.00416
121.21667	0.00222
121.21667	0.00496
121.21667	0.00238
121.21667	0.00980
121.21667	0.00416
121.21667	0.00947
121.21667	0.00883
121.21667	0.00609
121.21667	0.00802
121.21667	0.01012
121.21667	0.00351
121.21667	0.00899
121.21667	-0.00503
121.21667	0.01447
121.23333	0.00287
121.23333	-0.00068
121.23333	0.00706
121.23333	0.01688
121.23333	0.00561
121.23333	0.01141
121.23333	0.01527
121.23333	0.01189
121.23333	0.01221
121.23333	0.01366
121.21667	0.02204
121.21667	0.02172
121.20000	0.00786
121.20000	0.02140
121.18333	0.00802
121.16667	0.01688
121.13333	0.01817
120.53333	0.01125
119.05000	0.01108
118.26667	0.01044
118.26667	0.01624
118.26667	0.00996
118.26667	0.01060
118.26667	0.01060
118.26667	0.00835
118.28333	0.00093
118.28333	0.01527
118.28333	0.00432
118.28333	0.01092
118.28333	0.00625
118.28333	0.00996
118.28333	0.01028
118.28333	0.00432
118.28333	0.00625
118.28333	0.01495
118.28333	0.00883
118.28333	0.01108
118.28333	0.01237
118.28333	0.01044
118.28333	0.01576
118.28333	0.01624
118.28333	0.01044
118.28333	0.01543
118.28333	0.01253
118.28333	0.01253
118.28333	0.00980
118.28333	0.01431
118.28333	0.01318
118.30000	0.01463
118.30000	0.01431
118.30000	0.01205
118.30000	0.01012
118.30000	0.01527
118.30000	0.01189
118.30000	0.01527
118.30000	0.00673
118.28333	0.01270
118.28333	0.00093
118.28333	0.00996
118.28333	0.00448
118.26667	0.00963
118.26667	0.01769
118.25000	0.01415
118.23333	0.01366
118.18333	0.01785
117.38333	0.01608
116.11667	0.01189
115.38333	0.01044
115.35000	0.01286
115.35000	0.01431
115.35000	0.01656
115.36667	0.01173
115.36667	0.01302
115.36667	0.01479
115.36667	0.01237
115.36667	0.01769
115.36667	0.01382
115.36667	0.01092
115.36667	0.00754
115.36667	0.01334
115.36667	0.01205
115.36667	0.00706
115.36667	0.01608
115.36667	0.01060
115.36667	0.01431
115.36667	0.01286
115.36667	0.01382
115.36667	0.01076
115.36667	0.01092
115.36667	0.01189
115.36667	0.01527
115.36667	0.00690
115.38333	0.01157
115.38333	0.01447
115.38333	0.01447
115.38333	0.01366
115.38333	0.01253
115.38333	0.01028
115.36667	0.01205
115.36667	0.01447
115.35000	0.01382
115.35000	0.01237
115.33333	0.01108
115.31667	0.01495
115.23333	0.01237
114.25000	0.00899
112.70000	0.00947
112.06667	0.00738
112.06667	0.01431
112.06667	0.01189
112.06667	0.01382
112.06667	0.00996
112.08333	0.01495
112.08333	0.00996
112.08333	0.01205
112.08333	0.01141
112.08333	0.01560
112.08333	0.00690
112.08333	0.01431
112.08333	0.00545
112.08333	0.01221
112.08333	0.01157
112.08333	0.01189
112.08333	0.01366
112.08333	0.01173
112.08333	0.00690
112.08333	0.01092
112.08333	0.01253
112.08333	0.01076
112.08333	0.00657
112.08333	0.00996
112.08333	0.01173
112.10000	0.01044
112.10000	0.01012
112.10000	0.01173
112.10000	0.01302
112.10000	0.01511
112.10000	0.00480
112.10000	0.01189
112.10000	0.01060
112.08333	0.01334
112.08333	0.01157
112.06667	0.00770
111.96667	0.01334
110.66667	0.00899
109.41667	0.01108
109.26667	0.00432
109.26667	0.00915
109.26667	0.00625
109.26667	0.01253
109.26667	0.00577
109.26667	0.00303
109.26667	0.00931
109.26667	0.00464
109.28333	0.00706
109.28333	0.01012
109.28333	0.00835
109.28333	0.00754
109.28333	0.00835
109.28333	0.00496
109.28333	0.00835
109.28333	0.00818
109.28333	0.01125
109.28333	0.00126
109.28333	0.00899
109.28333	0.00786
109.28333	0.00383
109.28333	0.01060
109.28333	0.00287
109.26667	-0.00132
109.26667	0.00835
109.26667	0.00931
109.26667	0.00512
109.25000	0.00416
109.25000	0.00835
109.25000	0.00222
109.25000	0.00770
109.25000	0.00915
109.26667	0.00996
109.26667	0.00754
109.26667	0.00899
109.26667	0.00673
109.26667	0.00158
109.26667	0.00722
109.26667	0.00673
109.26667	0.00142
109.26667	0.00577
109.26667	0.00077
109.26667	0.00609
109.26667	0.01060
109.26667	0.00158
109.26667	0.00706
109.26667	0.00512
109.26667	0.00883
109.26667	0.00883
109.26667	0.00818
109.26667	0.00448
109.26667	0.00238
109.26667	0.00545
109.26667	0.00416
109.25000	0.00416
109.25000	0.00835
109.25000	0.00577
109.23333	0.00947
109.20000	0.01012
108.18333	0.00738
107.23333	0.00271
107.26667	0.00351
107.28333	0.00110
107.28333	0.00029
107.30000	0.00222
107.30000	0.00400
107.30000	0.00303
107.30000	0.00093
107.30000	0.00480
107.30000	0.00593
107.30000	0.00528
107.30000	0.00238
107.30000	0.00641
107.30000	0.00238
107.30000	0.00351
107.30000	0.00383
107.30000	0.00545
107.30000	0.00496
107.30000	0.00416
107.30000	0.00432
107.31667	0.00818
107.31667	0.00931
107.31667	0.00980
107.31667	0.00528
107.30000	0.00883
107.30000	0.00400
107.30000	0.00545
107.30000	0.00464
107.30000	0.00512
107.30000	0.00738
107.30000	0.00029
107.30000	0.00818
107.30000	0.00947
107.30000	0.00657
107.30000	0.00238
107.30000	-0.00019
107.30000	0.00142
107.30000	-0.00100
107.30000	-0.00035
107.30000	0.00528
107.30000	0.00190
107.30000	0.00222
107.30000	0.00190
107.30000	0.00287
107.30000	0.00013
107.28333	0.00303
107.28333	0.00335
107.26667	0.00029
107.25000	0.00400
107.20000	0.00126
106.55000	0.00593
105.70000	0.00416
105.55000	0.00110
105.55000	0.00303
105.56667	-0.00068
105.56667	0.00238
105.56667	0.00061
105.56667	0.00174
105.56667	0.00448
105.56667	-0.00035
105.56667	0.00319
105.56667	0.00238
105.56667	-0.00213
105.56667	0.00061
105.56667	0.00432
105.56667	0.00222
105.56667	-0.00068
105.56667	0.00802
105.56667	0.01318
105.56667	0.00093
105.56667	0.00061
105.56667	0.00271
105.56667	0.00561
105.56667	0.00126
105.56667	0.00351
105.56667	0.00238
105.56667	-0.00454
105.56667	-0.00164
105.56667	0.00432
105.56667	0.00545
105.55000	0.00126
105.55000	0.00206
105.55000	0.00126
105.55000	0.00319
105.55000	0.00641
105.55000	0.00400
105.53333	0.00400
105.53333	-0.00116
105.53333	0.00303
105.53333	0.00303
105.51667	0.00303
105.48333	-0.00019
105.08333	0.00367
103.95000	0.00110
103.36667	-0.00052
103.36667	0.00303
103.36667	0.00319
103.36667	0.00335
103.36667	0.00303
103.36667	-0.00019
103.36667	-0.00068
103.36667	-0.00052
103.36667	0.00110
103.36667	0.00190
103.36667	0.00061
103.36667	0.00480
103.36667	0.00174
103.36667	0.00158
103.36667	0.00271
103.36667	0.00093
103.36667	0.00464
103.36667	0.00593
103.36667	0.00416
103.36667	0.00609
103.36667	0.00609
103.36667	0.00222
103.36667	0.00786
103.36667	0.00915
103.36667	0.00480
103.38333	0.01398
103.38333	0.00319
103.38333	0.00754
103.38333	0.00963
103.38333	0.00335
103.38333	0.00673
103.38333	0.00077
103.38333	0.00802
103.38333	0.00512
103.38333	0.00754
103.38333	0.00319
103.38333	0.00722
103.36667	0.00271
103.36667	0.00786
103.35000	0.00432
103.35000	0.00577
103.31667	0.00464
102.75000	0.00496
101.50000	-0.00035
100.66667	-0.00035
100.65000	0.00287
100.65000	0.00142
100.65000	0.00206
100.65000	-0.00035
100.65000	0.00255
100.65000	0.00158
100.65000	-0.00052
100.65000	-0.00003
100.65000	0.00190
100.65000	0.00287
100.65000	0.00480
100.65000	0.00931
100.65000	0.00690
100.65000	0.00770
100.65000	0.00561
100.65000	0.00770
100.65000	0.00802
100.65000	0.00770
100.65000	0.00706
100.65000	0.00577
100.65000	0.00319
100.65000	0.00738
100.65000	0.00899
100.65000	0.00061
100.65000	0.01028
100.65000	-0.00084
100.65000	0.00013
100.65000	0.01173
100.65000	0.00271
100.65000	0.00383
100.65000	0.00013
100.65000	0.00818
100.65000	0.00545
100.65000	0.00512
100.65000	0.00255
100.65000	0.00512
100.63333	0.00255
100.61667	0.00287
100.21667	0.00416
98.60000	-0.00019
97.26667	0.00238
97.05000	-0.00068
97.05000	-0.00148
97.06667	-0.00003
97.06667	-0.00277
97.06667	-0.00116
97.06667	-0.00019
97.06667	0.00061
97.06667	-0.00003
97.06667	0.00142
97.06667	-0.00035
97.06667	0.00190
97.06667	0.00303
97.06667	0.00545
97.06667	0.00657
97.06667	0.00383
97.06667	0.00835
97.06667	0.00432
97.06667	0.00818
97.06667	0.00367
97.08333	0.00706
97.08333	0.00577
97.08333	0.00947
97.08333	0.00528
97.08333	0.00657
97.08333	0.00786
97.08333	0.01253
97.08333	0.00303
97.08333	0.00770
97.08333	0.00754
97.06667	0.00319
97.06667	0.00577
97.06667	0.00448
97.03333	0.00657
96.95000	0.00609
96.15000	0.00110
95.20000	-0.00132
94.88333	0.00093
94.88333	0.00077
94.88333	-0.00084
94.88333	-0.00132
94.88333	0.00093
94.88333	-0.00180
94.88333	0.00174
94.88333	0.00174
94.88333	-0.00068
94.88333	0.00641
94.88333	0.00851
94.88333	0.00867
94.88333	0.01012
94.88333	0.01157
94.88333	0.00899
94.88333	0.01302
94.88333	0.01253
94.88333	0.01108
94.90000	0.01173
94.90000	0.00802
94.90000	0.01141
94.90000	0.01415
94.90000	0.00641
94.90000	0.01398
94.90000	0.01318
94.88333	0.01366
94.88333	0.01253
94.88333	0.01431
94.88333	0.00947
94.86667	0.01092
94.83333	0.01350
94.48333	0.01221
93.38333	-0.00164
92.58333	0.00126
92.53333	-0.00342
92.53333	0.00238
92.53333	-0.00277
92.53333	0.00110
92.53333	0.00174
92.55000	-0.00052
92.55000	-0.00261
92.55000	0.00077
92.55000	-0.00116
92.55000	0.00045
92.55000	0.01205
92.55000	0.01060
92.56667	0.01125
92.56667	0.01173
92.56667	0.00738
92.56667	0.01141
92.56667	0.01141
92.56667	0.01270
92.56667	0.01302
92.56667	0.01624
92.56667	0.01543
92.56667	0.01560
92.56667	0.01479
92.56667	0.01978
92.56667	0.01688
92.56667	0.01962
92.56667	0.01898
92.56667	0.01318
92.56667	0.01592
92.56667	0.01769
92.56667	0.01721
92.56667	0.01688
92.55000	0.01640
92.55000	0.01543
92.53333	0.01866
92.50000	0.01560
92.01667	0.01543
90.65000	-0.00164
89.56667	-0.00197
89.48333	-0.00406
89.48333	0.00190
89.48333	0.00126
89.50000	-0.00164
89.50000	-0.00003
89.50000	-0.00068
89.50000	-0.00019
89.50000	0.00013
89.50000	0.00013
89.50000	-0.00052
89.50000	0.00190
89.50000	0.00222
89.50000	0.00528
89.50000	0.00867
89.50000	0.01688
89.50000	0.02365
89.50000	0.01946
89.50000	0.01898
89.50000	0.01995
89.51667	0.02027
89.51667	0.01560
89.51667	0.01850
89.51667	0.01737
89.51667	0.01382
89.51667	0.01656
89.51667	0.01366
89.51667	0.01721
89.51667	0.00963
89.51667	0.01447
89.51667	0.01366
89.51667	0.01253
89.50000	0.00899
89.50000	0.01769
89.50000	0.01431
89.50000	0.01688
89.48333	0.01705
89.46667	0.01753
89.43333	0.01978
88.68333	0.00222
87.53333	0.00029
86.98333	0.00045
86.98333	-0.00229
86.98333	-0.00068
87.00000	0.00045
87.00000	-0.00180
87.00000	-0.00068
87.00000	0.00061
87.00000	0.01656
87.00000	0.01576
87.00000	0.02349
87.00000	0.02397
87.00000	0.02011
87.00000	0.02107
87.00000	0.01995
87.00000	0.01543
87.00000	0.01930
87.00000	0.02075
87.00000	0.01672
87.00000	0.01769
87.01667	0.02236
87.01667	0.03300
87.01667	0.01817
87.01667	0.02140
87.01667	0.02301
87.01667	0.02446
87.01667	0.02268
87.01667	0.02043
87.01667	0.01624
87.01667	0.02365
87.01667	0.01753
87.00000	0.02075
86.98333	0.02349
86.96667	0.01882
86.93333	0.02123
86.73333	0.02043
85.73333	0.02381
84.68333	0.00061
84.33333	-0.00180
84.28333	0.00110
84.28333	0.00367
84.28333	-0.00068
84.28333	0.00271
84.28333	-0.00358
84.30000	-0.00164
84.30000	0.00190
84.30000	-0.00116
84.30000	0.03364
84.30000	0.03122
84.30000	0.02945
84.30000	0.02848
84.30000	0.02720
84.30000	0.02655
84.30000	0.03010
84.30000	0.02655
84.30000	0.02542
84.30000	0.02381
84.30000	0.02558
84.30000	0.02607
84.30000	0.02687
84.30000	0.02510
84.30000	0.02365
84.30000	0.02333
84.30000	0.02156
84.30000	0.02059
84.30000	0.02752
84.30000	0.02204
84.30000	0.02752
84.30000	0.02542
84.30000	0.02252
84.30000	0.02301
84.28333	0.02671
84.28333	0.02913
84.28333	0.02365
84.28333	0.02558
84.26667	0.02285
84.26667	0.02317
84.26667	0.02075
84.25000	0.02140
84.25000	0.02091
84.23333	0.02671
84.13333	0.02397
83.25000	-0.00084
82.06667	-0.00084
81.65000	-0.00245
81.65000	-0.00229
81.65000	0.00013
81.65000	-0.00116
81.66667	-0.00309
81.66667	-0.00132
81.66667	-0.00116
81.66667	-0.00342
81.66667	-0.00052
81.66667	-0.00132
81.66667	-0.00180
81.66667	0.00045
81.66667	-0.00003
81.66667	-0.00100
81.66667	-0.00100
81.66667	0.03138
81.66667	0.02929
81.66667	0.03122
81.66667	0.02752
81.66667	0.02800
81.68333	0.02591
81.68333	0.03380
81.68333	0.02365
81.68333	0.03187
81.68333	0.03058
81.68333	0.02591
81.68333	0.03026
81.68333	0.03203
81.68333	0.02703
81.68333	0.02993
81.68333	0.03348
81.66667	0.03138
81.66667	0.03396
81.65000	0.03283
81.63333	0.02784
81.51667	0.03219
80.36667	0.00255
79.06667	-0.00035
78.75000	0.00045
78.75000	-0.00180
78.75000	0.00061
78.75000	-0.00293
78.75000	0.00013
78.75000	0.00045
78.75000	-0.00116
78.75000	0.00303
78.75000	-0.00052
78.75000	-0.00052
78.75000	-0.00068
78.75000	0.00190
78.75000	0.00029
78.75000	-0.00068
78.75000	0.03590
78.75000	0.03783
78.75000	0.03606
78.75000	0.03896
78.75000	0.03445
78.75000	0.03976
78.75000	0.03525
78.76667	0.03412
78.76667	0.03670
78.76667	0.03364
78.75000	0.03590
78.75000	0.03590
78.75000	0.03461
78.75000	0.03267
78.75000	0.03799
78.73333	0.03960
78.68333	0.03203
77.81667	0.03622
76.50000	0.08552
76.16667	0.01125
76.16667	0.00335
76.16667	-0.00068
76.16667	0.00335
76.16667	0.00416
76.16667	0.00400
76.18333	-0.00229
76.18333	0.00496
76.18333	0.00093
76.18333	0.00271
76.18333	0.00110
76.18333	0.00206
76.18333	-0.00068
76.18333	-0.00035
76.18333	0.04137
76.18333	0.03831
76.18333	0.04170
76.18333	0.03461
76.18333	0.04202
76.18333	0.03364
76.18333	0.04041
76.18333	0.03831
76.18333	0.04105
76.18333	0.04234
76.18333	0.05201
76.18333	0.04588
76.18333	0.04363
76.18333	0.04540
76.18333	0.04121
76.18333	0.04266
76.18333	0.04621
76.18333	0.04137
76.18333	0.04008
76.16667	0.03896
76.16667	0.04363
76.16667	0.04427
76.16667	0.03896
76.16667	0.04282
76.15000	0.04395
76.15000	0.04105
76.15000	0.03912
76.15000	0.03735
76.11667	0.03863
76.00000	0.04733
75.30000	0.04041
74.68333	0.00303
74.60000	0.00093
74.58333	0.00110
74.55000	-0.00116
74.51667	-0.00116
74.43333	-0.00293
74.40000	-0.00132
74.40000	0.00126
74.40000	0.00061
74.40000	0.00061
74.40000	0.00222
74.40000	0.04073
74.40000	0.04121
74.40000	0.04669
74.40000	0.04379
74.40000	0.04605
74.41667	0.04814
74.41667	0.04008
74.41667	0.04443
74.41667	0.04524
74.41667	0.04524
74.41667	0.03590
74.41667	0.03525
74.41667	0.03912
74.43333	0.03654
74.43333	0.03751
74.43333	0.04089
74.43333	0.03928
74.43333	0.03831
74.43333	0.04008
74.43333	0.03928
74.43333	0.03606
74.41667	0.04041
74.41667	0.04057
74.40000	0.03461
74.40000	0.03896
74.38333	0.04105
74.33333	0.04234
73.65000	0.04701
72.36667	0.00029
71.50000	-0.00180
71.45000	-0.00116
71.45000	-0.00116
71.45000	0.00013
71.45000	-0.00100
71.45000	-0.00277
71.45000	0.00126
71.45000	-0.00148
71.46667	-0.00100
71.46667	0.00255
71.46667	-0.00213
71.46667	-0.00245
71.46667	0.03428
71.46667	-0.00116
71.46667	0.03912
71.46667	0.04121
71.46667	0.04137
71.46667	0.04540
71.46667	0.05281
71.46667	0.05410
71.46667	0.05007
71.46667	0.04540
71.46667	0.05088
71.46667	0.05007
71.46667	0.05233
71.46667	0.04830
71.46667	0.04846
71.46667	0.04621
71.46667	0.04830
71.46667	0.05136
71.46667	0.04733
71.46667	0.05491
71.46667	0.04556
71.46667	0.04782
71.46667	0.05233
71.46667	0.04782
71.45000	0.05217
71.43333	0.05104
71.21667	0.04540
70.30000	-0.00358
69.33333	-0.00438
69.08333	0.00335
69.08333	0.00190
69.08333	0.00126
69.08333	-0.00132
69.08333	0.00335
69.08333	0.00303
69.08333	-0.00245
69.08333	-0.00052
69.08333	0.00255
69.08333	0.01785
69.08333	-0.00068
69.08333	-0.00116
69.08333	0.04556
69.08333	0.03992
69.08333	0.03380
69.08333	0.03751
69.10000	0.04025
69.10000	0.03735
69.10000	0.04266
69.10000	0.04347
69.10000	0.04814
69.10000	0.04830
69.10000	0.04395
69.10000	0.04298
69.10000	0.04637
69.10000	0.04733
69.10000	0.04588
69.10000	0.04846
69.08333	0.04202
69.08333	0.04025
69.06667	0.04395
68.96667	0.04524
67.90000	0.05185
66.50000	-0.00003
65.73333	0.01060
65.71667	0.00158
65.71667	0.00222
65.71667	-0.00438
65.71667	0.00158
65.71667	0.00029
65.71667	0.01012
65.71667	-0.00229
65.71667	0.00271
65.71667	0.00093
65.71667	-0.00277
65.71667	0.00093
65.71667	0.00593
65.71667	0.00045
65.71667	0.01608
65.71667	0.02220
65.71667	-0.00100
65.71667	-0.00068
65.71667	0.06055
65.71667	0.06006
65.71667	0.05958
65.71667	0.05458
65.71667	0.05571
65.71667	0.06022
65.71667	0.06055
65.71667	0.05781
65.71667	0.05458
65.71667	0.05088
65.71667	0.05297
65.71667	0.04605
65.71667	0.05603
65.71667	0.06071
65.71667	0.05813
65.71667	0.05700
65.71667	0.05990
65.71667	0.05748
65.71667	0.06135
65.71667	0.06200
65.70000	0.06264
65.70000	0.05571
65.66667	0.05249
65.45000	0.05620
64.68333	0.06055
64.11667	0.02687
64.10000	0.01785
64.10000	0.02156
64.10000	0.02285
64.10000	0.02768
64.10000	0.03074
64.10000	0.04025
64.10000	0.04669
64.10000	0.05539
64.10000	0.06151
64.10000	0.06522
64.10000	0.06006
64.10000	0.06345
64.10000	0.05845
64.10000	0.06264
64.10000	0.06151
64.11667	0.06232
64.11667	0.06216
64.11667	0.06103
64.11667	0.05555
64.11667	0.06425
64.11667	0.05410
64.10000	0.05958
64.10000	0.06167
64.10000	0.05797
64.10000	0.05990
64.08333	0.05603
64.05000	0.06087
63.73333	0.05861
63.41667	0.05781
63.33333	0.05877
63.31667	0.05716
63.31667	0.05684
63.30000	0.04975
63.23333	0.05845
63.05000	0.03896
62.73333	0.00045
62.45000	0.26854
62.23333	0.00029
62.15000	-0.00277
62.15000	-0.00148
62.15000	-0.00309
62.15000	-0.00116
62.15000	-0.00116
62.15000	0.03863
62.15000	-0.00068
62.15000	-0.00068
62.15000	0.06715
62.15000	0.06667
62.15000	0.06135
62.15000	0.06763
62.16667	0.06216
62.16667	0.06667
62.16667	0.06151
62.16667	0.06763
62.18333	0.06087
62.18333	0.06554
62.18333	0.06328
62.18333	0.05845
62.18333	0.06538
62.18333	0.06586
62.16667	0.06232
62.15000	0.06747
62.15000	0.06602
62.03333	0.06602
60.58333	0.00271
59.03333	-0.00052
59.00000	-0.00116
59.00000	-0.00003
59.00000	-0.00116
59.00000	0.00093
59.00000	-0.00003
59.00000	0.00029
59.00000	0.00061
59.00000	-0.00068
59.00000	0.00077
59.00000	0.00126
59.00000	0.06860
59.00000	0.00029
59.00000	0.03557
59.00000	0.06022
59.00000	0.06796
59.00000	0.05877
59.00000	0.06473
59.00000	0.06522
59.00000	0.06022
59.00000	0.06200
59.00000	0.06876
59.00000	0.06635
59.00000	0.06200
59.00000	0.06183
59.00000	0.06538
59.01667	0.06812
59.01667	0.06747
59.01667	0.06103
59.01667	0.06296
59.00000	0.07118
59.00000	0.07182
58.98333	0.06280
58.98333	0.06618
58.98333	0.06796
58.98333	0.06473
58.96667	0.06618
58.95000	0.07311
58.86667	0.07005
58.05000	0.06812
57.13333	0.00335
56.93333	-0.00245
56.93333	0.00174
56.93333	-0.00084
56.93333	-0.00148
56.93333	0.00029
56.93333	0.00110
56.93333	-0.00358
56.93333	-0.00358
56.93333	0.00174
56.93333	0.00158
56.93333	0.00093
56.93333	0.00335
56.93333	0.00464
56.93333	0.02671
56.93333	0.06216
56.93333	0.06973
56.93333	0.07182
56.93333	0.07070
56.93333	0.06957
56.93333	0.06296
56.93333	0.06216
56.93333	0.06071
56.95000	0.05893
56.95000	0.06860
56.95000	0.07182
56.95000	0.07376
56.93333	0.06522
56.93333	0.06457
56.93333	0.07166
56.91667	0.07166
56.88333	0.07311
56.40000	0.07376
55.51667	0.05249
55.06667	0.00126
55.05000	-0.00019
55.06667	-0.00084
55.06667	0.00061
55.06667	0.00013
55.06667	0.00077
55.06667	0.00061
55.06667	0.00061
55.06667	0.01962
55.06667	0.05201
55.06667	0.07424
55.06667	0.07327
55.06667	0.07666
55.06667	0.07650
55.06667	0.07762
55.06667	0.07972
55.06667	0.07327
55.06667	0.07940
55.06667	0.07746
55.06667	0.07553
55.06667	0.07778
55.06667	0.07295
55.06667	0.07424
55.06667	0.07134
55.08333	0.07553
55.08333	0.07650
55.08333	0.07247
55.08333	0.07215
55.08333	0.07601
55.08333	0.07714
55.08333	0.07488
55.06667	0.07650
55.05000	0.07327
55.05000	0.06941
55.03333	0.07811
55.01667	0.07037
54.96667	0.07311
54.38333	0.07521
53.46667	0.00093
53.03333	0.00029
53.03333	-0.00164
53.03333	-0.00180
53.03333	0.00126
53.03333	0.00029
53.03333	0.00029
53.03333	-0.00068
53.03333	0.00142
53.03333	-0.00100
53.03333	-0.00100
53.03333	0.00029
53.03333	0.00625
53.03333	0.07408
53.03333	0.07440
53.05000	0.07505
53.05000	0.08165
53.05000	0.08004
53.05000	0.08052
53.05000	0.08036
53.05000	0.06957
53.05000	0.06892
53.05000	0.06216
53.05000	0.07263
53.05000	0.07698
53.05000	0.07053
53.05000	0.07311
53.05000	0.07617
53.05000	0.06828
53.05000	0.07521
53.05000	0.07537
53.03333	0.07247
53.03333	0.07617
53.03333	0.07585
53.03333	0.07440
53.01667	0.07730
53.01667	0.07392
52.98333	0.07811
52.55000	0.07875
51.58333	0.05829
50.91667	0.00206
50.93333	-0.00019
50.93333	-0.00148
50.93333	-0.00213
50.93333	-0.00100
50.93333	0.00061
50.93333	-0.00229
50.93333	-0.00052
50.93333	-0.00148
50.93333	0.00093
50.93333	-0.00164
50.93333	-0.00309
50.93333	0.00190
50.93333	-0.00019
50.93333	-0.00068
50.93333	0.00110
50.93333	0.00238
50.93333	0.05281
50.95000	0.07505
50.95000	0.07633
50.95000	0.07746
50.95000	0.07730
50.95000	0.08149
50.95000	0.07714
50.95000	0.07730
50.95000	0.06941
50.95000	0.08197
50.95000	0.08133
50.95000	0.07682
50.95000	0.06989
50.95000	0.07150
50.95000	0.07795
50.95000	0.07988
50.95000	0.07601
50.95000	0.08068
50.93333	0.07795
50.93333	0.07811
50.93333	0.07859
50.93333	0.08117
50.91667	0.07650
50.90000	0.08117
50.70000	0.08101
49.93333	0.07907
49.16667	0.00077
48.93333	0.00110
48.93333	-0.00197
48.93333	-0.00035
48.93333	-0.00035
48.93333	0.00045
48.93333	-0.00229
48.93333	-0.00068
48.93333	-0.00148
48.93333	-0.00084
48.93333	-0.00052
48.93333	-0.00052
48.93333	-0.00068
48.93333	0.03300
48.93333	0.08294
48.93333	0.08342
48.93333	0.07988
48.93333	0.08149
48.93333	0.07940
48.93333	0.08230
48.93333	0.08552
48.93333	0.07843
48.93333	0.08471
48.93333	0.08439
48.93333	0.08423
48.93333	0.08101
48.93333	0.07762
48.93333	0.07923
48.93333	0.07714
48.93333	0.07714
48.93333	0.08230
48.93333	0.08503
48.93333	0.08133
48.93333	0.08149
48.93333	0.08213
48.93333	0.08149
48.91667	0.08101
48.91667	0.08020
48.88333	0.08407
48.43333	0.08036
47.01667	-0.00213
46.13333	0.01447
46.10000	0.00867
46.10000	0.00061
46.10000	0.00754
46.10000	0.01028
46.10000	0.00673
46.10000	0.01237
46.10000	0.00561
46.11667	0.00673
46.11667	0.01044
46.11667	0.00045
46.11667	0.02172
46.11667	-0.00052
46.11667	-0.00068
46.11667	0.08358
46.11667	0.08020
46.11667	0.08246
46.11667	0.08342
46.13333	0.07972
46.13333	0.08004
46.13333	0.07923
46.13333	0.07118
46.13333	0.08036
46.13333	0.08375
46.13333	0.08423
46.13333	0.08391
46.13333	0.08294
46.13333	0.07988
46.13333	0.08568
46.11667	0.08165
46.11667	0.08713
46.11667	0.08616
46.10000	0.08358
46.10000	0.08439
46.10000	0.08487
46.08333	0.08294
46.06667	0.08052
46.00000	0.08375
45.43333	0.08536
44.60000	0.02510
44.06667	0.30608
43.98333	-0.00261
43.98333	0.02027
43.95000	-0.00084
43.95000	0.00867
43.95000	-0.00035
43.95000	0.01914
43.95000	-0.00325
43.95000	0.00963
43.95000	0.00206
43.95000	0.00013
43.95000	-0.00132
43.95000	0.08213
43.95000	0.08310
43.95000	0.08632
43.95000	0.08213
43.96667	0.08213
43.96667	0.08713
43.96667	0.08665
43.96667	0.08616
43.96667	0.09228
43.96667	0.08584
43.98333	0.08777
43.98333	0.08133
43.98333	0.08681
43.96667	0.08745
43.96667	0.08616
43.96667	0.08068
43.95000	0.08536
43.95000	0.08536
43.93333	0.08439
43.93333	0.08632
43.80000	0.08342
42.88333	0.04492
41.91667	0.00271
41.60000	-0.00100
41.60000	-0.00374
41.61667	0.02703
41.61667	-0.00116
41.61667	-0.00197
41.61667	0.01688
41.61667	0.01270
41.61667	-0.00132
41.61667	0.00126
41.61667	0.05120
41.61667	-0.00148
41.61667	-0.00084
41.61667	0.08810
41.61667	0.08536
41.61667	0.08938
41.61667	0.09067
41.61667	0.08197
41.61667	0.08101
41.61667	0.08681
41.61667	0.09132
41.61667	0.08391
41.61667	0.08906
41.61667	0.08761
41.61667	0.08681
41.61667	0.08810
41.61667	0.09293
41.61667	0.08552
41.60000	0.08455
41.60000	0.09261
41.58333	0.08197
41.56667	0.08922
41.36667	0.08648
40.55000	0.01882
39.83333	-0.00116
39.60000	0.00738
39.58333	0.00673
39.58333	-0.00197
39.58333	0.01995
39.58333	-0.00035
39.60000	0.01624
39.60000	0.02156
39.60000	0.02043
39.60000	0.00061
39.60000	0.07166
39.60000	-0.00084
39.60000	-0.00035
39.60000	0.08616
39.60000	0.07553
39.60000	0.08068
39.60000	0.07827
39.60000	0.07569
39.60000	0.07714
39.60000	0.07923
39.60000	0.07553
39.60000	0.08600
39.61667	0.08455
39.61667	0.08729
39.61667	0.08665
39.61667	0.08133
39.61667	0.07714
39.61667	0.08584
39.61667	0.08197
39.61667	0.08987
39.61667	0.08487
39.61667	0.08503
39.61667	0.08117
39.61667	0.08552
39.60000	0.08101
39.60000	0.07891
39.60000	0.07682
39.60000	0.09003
39.60000	0.09164
39.60000	0.08503
39.60000	0.08213
39.60000	0.08213
39.58333	0.07843
39.58333	0.07617
39.56667	0.08455
39.55000	0.08520
39.35000	0.09003
38.46667	0.08278
37.55000	-0.00180
37.31667	0.02027
37.31667	-0.00261
37.31667	-0.00309
37.31667	-0.00052
37.31667	0.00867
37.31667	-0.00019
37.31667	0.00013
37.31667	-0.00148
37.31667	-0.00100
37.31667	-0.00084
37.31667	0.08697
37.31667	0.08713
37.31667	0.08874
37.33333	0.09551
37.33333	0.08616
37.33333	0.09035
37.33333	0.09100
37.33333	0.08568
37.33333	0.08600
37.33333	0.09116
37.33333	0.09083
37.31667	0.08955
37.31667	0.09019
37.30000	0.08697
37.30000	0.09261
37.23333	0.09905
36.66667	0.09051
36.06667	0.00706
35.83333	-0.00003
35.83333	-0.00213
35.81667	-0.00052
35.81667	0.00013
35.81667	0.00142
35.83333	0.00400
35.83333	0.07215
35.83333	0.09325
35.83333	0.09390
35.83333	0.09422
35.83333	0.09373
35.83333	0.09325
35.83333	0.09776
35.83333	0.08922
35.85000	0.08810
35.85000	0.09083
35.85000	0.08874
35.85000	0.08568
35.85000	0.09953
35.85000	0.08874
35.85000	0.09228
35.85000	0.09373
35.85000	0.09051
35.83333	0.09051
35.83333	0.09116
35.83333	0.08938
35.81667	0.08922
35.81667	0.09357
35.81667	0.09293
35.81667	0.09454
35.80000	0.09228
35.80000	0.08552
35.78333	0.09245
35.75000	0.09680
35.28333	0.08004
34.63333	-0.00358
34.63333	-0.00325
34.63333	-0.00003
34.63333	-0.00180
34.63333	-0.00277
34.63333	-0.00068
34.65000	-0.00052
34.65000	-0.00293
34.65000	0.01028
34.65000	-0.00422
34.65000	0.01946
34.65000	-0.00374
34.65000	0.00690
34.65000	-0.00084
34.65000	-0.00068
34.65000	0.07859
34.65000	0.09067
34.65000	0.09132
34.65000	0.09502
34.65000	0.08922
34.65000	0.08584
34.65000	0.08826
34.65000	0.08681
34.65000	0.08922
34.65000	0.09051
34.65000	0.09035
34.65000	0.09325
34.65000	0.08584
34.66667	0.09535
34.66667	0.08858
34.66667	0.09486
34.66667	0.09502
34.66667	0.09373
34.66667	0.08326
34.66667	0.08955
34.66667	0.09035
34.66667	0.08826
34.66667	0.08858
34.66667	0.08858
34.66667	0.09196
34.66667	0.08810
34.66667	0.08294
34.66667	0.09164
34.66667	0.08906
34.66667	0.08810
34.66667	0.09100
34.66667	0.09019
34.66667	0.08262
34.66667	0.09228
34.66667	0.08407
34.66667	0.09196
34.66667	0.08648
34.66667	0.09003
34.66667	0.08761
34.66667	0.09261
34.66667	0.09277
34.66667	0.08955
34.66667	0.08810
34.66667	0.09277
34.66667	0.08455
34.66667	0.08423
34.66667	0.09083
34.66667	0.09083
34.66667	0.08745
34.66667	0.08600
34.66667	0.09035
34.66667	0.09051
34.66667	0.08810
34.66667	0.09083
34.66667	0.09406
34.66667	0.09680
34.66667	0.08938
34.66667	0.08520
34.66667	0.09019
34.66667	0.09035
34.66667	0.08729
34.66667	0.09680
34.66667	0.09518
34.66667	0.09245
34.66667	0.08536
34.66667	0.08793
34.66667	0.08955
34.66667	0.09631
34.66667	0.09100
34.66667	0.08423
34.66667	0.08987
34.66667	0.09212
34.66667	0.08922
34.68333	0.08536
34.68333	0.09341
34.68333	0.09583
34.68333	0.08471
34.68333	0.09019
34.68333	0.09212
34.68333	0.08874
34.68333	0.08890
34.68333	0.08922
34.68333	0.08487
34.68333	0.09116
34.68333	0.08616
34.68333	0.09277
34.68333	0.08922